Angle,Reflectance
63.000,0.997353
63.001,0.997350
63.002,0.997348
63.003,0.997345
63.004,0.997342
63.005,0.997339
63.006,0.997336
63.007,0.997333
63.008,0.997330
63.009,0.997327
63.010,0.997324
63.011,0.997322
63.012,0.997319
63.013,0.997316
63.014,0.997313
63.015,0.997310
63.016,0.997307
63.017,0.997304
63.018,0.997301
63.019,0.997298
63.020,0.997295
63.021,0.997292
63.022,0.997289
63.023,0.997286
63.024,0.997283
63.025,0.997280
63.026,0.997277
63.027,0.997274
63.028,0.997271
63.029,0.997268
63.030,0.997265
63.031,0.997262
63.032,0.997259
63.033,0.997256
63.034,0.997253
63.035,0.997250
63.036,0.997246
63.037,0.997243
63.038,0.997240
63.039,0.997237
63.040,0.997234
63.041,0.997231
63.042,0.997228
63.043,0.997225
63.044,0.997222
63.045,0.997218
63.046,0.997215
63.047,0.997212
63.048,0.997209
63.049,0.997206
63.050,0.997203
63.051,0.997199
63.052,0.997196
63.053,0.997193
63.054,0.997190
63.055,0.997186
63.056,0.997183
63.057,0.997180
63.058,0.997177
63.059,0.997174
63.060,0.997170
63.061,0.997167
63.062,0.997164
63.063,0.997160
63.064,0.997157
63.065,0.997154
63.066,0.997151
63.067,0.997147
63.068,0.997144
63.069,0.997141
63.070,0.997137
63.071,0.997134
63.072,0.997130
63.073,0.997127
63.074,0.997124
63.075,0.997120
63.076,0.997117
63.077,0.997114
63.078,0.997110
63.079,0.997107
63.080,0.997103
63.081,0.997100
63.082,0.997097
63.083,0.997093
63.084,0.997090
63.085,0.997086
63.086,0.997083
63.087,0.997079
63.088,0.997076
63.089,0.997072
63.090,0.997069
63.091,0.997065
63.092,0.997062
63.093,0.997058
63.094,0.997055
63.095,0.997051
63.096,0.997048
63.097,0.997044
63.098,0.997040
63.099,0.997037
63.100,0.997033
63.101,0.997030
63.102,0.997026
63.103,0.997022
63.104,0.997019
63.105,0.997015
63.106,0.997012
63.107,0.997008
63.108,0.997004
63.109,0.997001
63.110,0.996997
63.111,0.996993
63.112,0.996989
63.113,0.996986
63.114,0.996982
63.115,0.996978
63.116,0.996975
63.117,0.996971
63.118,0.996967
63.119,0.996963
63.120,0.996960
63.121,0.996956
63.122,0.996952
63.123,0.996948
63.124,0.996944
63.125,0.996941
63.126,0.996937
63.127,0.996933
63.128,0.996929
63.129,0.996925
63.130,0.996921
63.131,0.996917
63.132,0.996914
63.133,0.996910
63.134,0.996906
63.135,0.996902
63.136,0.996898
63.137,0.996894
63.138,0.996890
63.139,0.996886
63.140,0.996882
63.141,0.996878
63.142,0.996874
63.143,0.996870
63.144,0.996866
63.145,0.996862
63.146,0.996858
63.147,0.996854
63.148,0.996850
63.149,0.996846
63.150,0.996842
63.151,0.996838
63.152,0.996834
63.153,0.996830
63.154,0.996826
63.155,0.996822
63.156,0.996817
63.157,0.996813
63.158,0.996809
63.159,0.996805
63.160,0.996801
63.161,0.996797
63.162,0.996792
63.163,0.996788
63.164,0.996784
63.165,0.996780
63.166,0.996776
63.167,0.996771
63.168,0.996767
63.169,0.996763
63.170,0.996758
63.171,0.996754
63.172,0.996750
63.173,0.996746
63.174,0.996741
63.175,0.996737
63.176,0.996733
63.177,0.996728
63.178,0.996724
63.179,0.996719
63.180,0.996715
63.181,0.996711
63.182,0.996706
63.183,0.996702
63.184,0.996697
63.185,0.996693
63.186,0.996688
63.187,0.996684
63.188,0.996679
63.189,0.996675
63.190,0.996670
63.191,0.996666
63.192,0.996661
63.193,0.996657
63.194,0.996652
63.195,0.996648
63.196,0.996643
63.197,0.996638
63.198,0.996634
63.199,0.996629
63.200,0.996625
63.201,0.996620
63.202,0.996615
63.203,0.996611
63.204,0.996606
63.205,0.996601
63.206,0.996597
63.207,0.996592
63.208,0.996587
63.209,0.996582
63.210,0.996578
63.211,0.996573
63.212,0.996568
63.213,0.996563
63.214,0.996558
63.215,0.996554
63.216,0.996549
63.217,0.996544
63.218,0.996539
63.219,0.996534
63.220,0.996529
63.221,0.996524
63.222,0.996519
63.223,0.996514
63.224,0.996509
63.225,0.996505
63.226,0.996500
63.227,0.996495
63.228,0.996490
63.229,0.996485
63.230,0.996480
63.231,0.996474
63.232,0.996469
63.233,0.996464
63.234,0.996459
63.235,0.996454
63.236,0.996449
63.237,0.996444
63.238,0.996439
63.239,0.996434
63.240,0.996428
63.241,0.996423
63.242,0.996418
63.243,0.996413
63.244,0.996408
63.245,0.996402
63.246,0.996397
63.247,0.996392
63.248,0.996386
63.249,0.996381
63.250,0.996376
63.251,0.996370
63.252,0.996365
63.253,0.996360
63.254,0.996354
63.255,0.996349
63.256,0.996344
63.257,0.996338
63.258,0.996333
63.259,0.996327
63.260,0.996322
63.261,0.996316
63.262,0.996311
63.263,0.996305
63.264,0.996300
63.265,0.996294
63.266,0.996289
63.267,0.996283
63.268,0.996277
63.269,0.996272
63.270,0.996266
63.271,0.996260
63.272,0.996255
63.273,0.996249
63.274,0.996243
63.275,0.996238
63.276,0.996232
63.277,0.996226
63.278,0.996220
63.279,0.996215
63.280,0.996209
63.281,0.996203
63.282,0.996197
63.283,0.996191
63.284,0.996185
63.285,0.996179
63.286,0.996174
63.287,0.996168
63.288,0.996162
63.289,0.996156
63.290,0.996150
63.291,0.996144
63.292,0.996138
63.293,0.996132
63.294,0.996126
63.295,0.996120
63.296,0.996114
63.297,0.996107
63.298,0.996101
63.299,0.996095
63.300,0.996089
63.301,0.996083
63.302,0.996077
63.303,0.996070
63.304,0.996064
63.305,0.996058
63.306,0.996052
63.307,0.996045
63.308,0.996039
63.309,0.996033
63.310,0.996026
63.311,0.996020
63.312,0.996014
63.313,0.996007
63.314,0.996001
63.315,0.995994
63.316,0.995988
63.317,0.995981
63.318,0.995975
63.319,0.995968
63.320,0.995962
63.321,0.995955
63.322,0.995949
63.323,0.995942
63.324,0.995935
63.325,0.995929
63.326,0.995922
63.327,0.995915
63.328,0.995909
63.329,0.995902
63.330,0.995895
63.331,0.995888
63.332,0.995882
63.333,0.995875
63.334,0.995868
63.335,0.995861
63.336,0.995854
63.337,0.995847
63.338,0.995840
63.339,0.995833
63.340,0.995826
63.341,0.995819
63.342,0.995812
63.343,0.995805
63.344,0.995798
63.345,0.995791
63.346,0.995784
63.347,0.995777
63.348,0.995770
63.349,0.995763
63.350,0.995756
63.351,0.995748
63.352,0.995741
63.353,0.995734
63.354,0.995727
63.355,0.995719
63.356,0.995712
63.357,0.995705
63.358,0.995697
63.359,0.995690
63.360,0.995682
63.361,0.995675
63.362,0.995667
63.363,0.995660
63.364,0.995652
63.365,0.995645
63.366,0.995637
63.367,0.995630
63.368,0.995622
63.369,0.995614
63.370,0.995607
63.371,0.995599
63.372,0.995591
63.373,0.995584
63.374,0.995576
63.375,0.995568
63.376,0.995560
63.377,0.995552
63.378,0.995544
63.379,0.995537
63.380,0.995529
63.381,0.995521
63.382,0.995513
63.383,0.995505
63.384,0.995497
63.385,0.995489
63.386,0.995481
63.387,0.995472
63.388,0.995464
63.389,0.995456
63.390,0.995448
63.391,0.995440
63.392,0.995431
63.393,0.995423
63.394,0.995415
63.395,0.995407
63.396,0.995398
63.397,0.995390
63.398,0.995381
63.399,0.995373
63.400,0.995365
63.401,0.995356
63.402,0.995347
63.403,0.995339
63.404,0.995330
63.405,0.995322
63.406,0.995313
63.407,0.995304
63.408,0.995296
63.409,0.995287
63.410,0.995278
63.411,0.995269
63.412,0.995261
63.413,0.995252
63.414,0.995243
63.415,0.995234
63.416,0.995225
63.417,0.995216
63.418,0.995207
63.419,0.995198
63.420,0.995189
63.421,0.995180
63.422,0.995171
63.423,0.995161
63.424,0.995152
63.425,0.995143
63.426,0.995134
63.427,0.995124
63.428,0.995115
63.429,0.995106
63.430,0.995096
63.431,0.995087
63.432,0.995077
63.433,0.995068
63.434,0.995058
63.435,0.995049
63.436,0.995039
63.437,0.995030
63.438,0.995020
63.439,0.995010
63.440,0.995001
63.441,0.994991
63.442,0.994981
63.443,0.994971
63.444,0.994961
63.445,0.994951
63.446,0.994941
63.447,0.994931
63.448,0.994921
63.449,0.994911
63.450,0.994901
63.451,0.994891
63.452,0.994881
63.453,0.994871
63.454,0.994861
63.455,0.994850
63.456,0.994840
63.457,0.994830
63.458,0.994819
63.459,0.994809
63.460,0.994798
63.461,0.994788
63.462,0.994777
63.463,0.994767
63.464,0.994756
63.465,0.994746
63.466,0.994735
63.467,0.994724
63.468,0.994713
63.469,0.994703
63.470,0.994692
63.471,0.994681
63.472,0.994670
63.473,0.994659
63.474,0.994648
63.475,0.994637
63.476,0.994626
63.477,0.994615
63.478,0.994603
63.479,0.994592
63.480,0.994581
63.481,0.994570
63.482,0.994558
63.483,0.994547
63.484,0.994535
63.485,0.994524
63.486,0.994512
63.487,0.994501
63.488,0.994489
63.489,0.994478
63.490,0.994466
63.491,0.994454
63.492,0.994442
63.493,0.994431
63.494,0.994419
63.495,0.994407
63.496,0.994395
63.497,0.994383
63.498,0.994371
63.499,0.994359
63.500,0.994346
63.501,0.994334
63.502,0.994322
63.503,0.994310
63.504,0.994297
63.505,0.994285
63.506,0.994273
63.507,0.994260
63.508,0.994248
63.509,0.994235
63.510,0.994222
63.511,0.994210
63.512,0.994197
63.513,0.994184
63.514,0.994171
63.515,0.994158
63.516,0.994145
63.517,0.994132
63.518,0.994119
63.519,0.994106
63.520,0.994093
63.521,0.994080
63.522,0.994067
63.523,0.994053
63.524,0.994040
63.525,0.994027
63.526,0.994013
63.527,0.994000
63.528,0.993986
63.529,0.993973
63.530,0.993959
63.531,0.993945
63.532,0.993931
63.533,0.993917
63.534,0.993904
63.535,0.993890
63.536,0.993876
63.537,0.993862
63.538,0.993847
63.539,0.993833
63.540,0.993819
63.541,0.993805
63.542,0.993790
63.543,0.993776
63.544,0.993761
63.545,0.993747
63.546,0.993732
63.547,0.993718
63.548,0.993703
63.549,0.993688
63.550,0.993673
63.551,0.993658
63.552,0.993643
63.553,0.993628
63.554,0.993613
63.555,0.993598
63.556,0.993583
63.557,0.993568
63.558,0.993552
63.559,0.993537
63.560,0.993521
63.561,0.993506
63.562,0.993490
63.563,0.993475
63.564,0.993459
63.565,0.993443
63.566,0.993427
63.567,0.993411
63.568,0.993395
63.569,0.993379
63.570,0.993363
63.571,0.993347
63.572,0.993331
63.573,0.993314
63.574,0.993298
63.575,0.993281
63.576,0.993265
63.577,0.993248
63.578,0.993231
63.579,0.993215
63.580,0.993198
63.581,0.993181
63.582,0.993164
63.583,0.993147
63.584,0.993130
63.585,0.993112
63.586,0.993095
63.587,0.993078
63.588,0.993060
63.589,0.993043
63.590,0.993025
63.591,0.993007
63.592,0.992990
63.593,0.992972
63.594,0.992954
63.595,0.992936
63.596,0.992918
63.597,0.992900
63.598,0.992881
63.599,0.992863
63.600,0.992845
63.601,0.992826
63.602,0.992808
63.603,0.992789
63.604,0.992770
63.605,0.992751
63.606,0.992733
63.607,0.992714
63.608,0.992694
63.609,0.992675
63.610,0.992656
63.611,0.992637
63.612,0.992617
63.613,0.992598
63.614,0.992578
63.615,0.992558
63.616,0.992539
63.617,0.992519
63.618,0.992499
63.619,0.992479
63.620,0.992459
63.621,0.992438
63.622,0.992418
63.623,0.992397
63.624,0.992377
63.625,0.992356
63.626,0.992336
63.627,0.992315
63.628,0.992294
63.629,0.992273
63.630,0.992252
63.631,0.992230
63.632,0.992209
63.633,0.992188
63.634,0.992166
63.635,0.992145
63.636,0.992123
63.637,0.992101
63.638,0.992079
63.639,0.992057
63.640,0.992035
63.641,0.992013
63.642,0.991990
63.643,0.991968
63.644,0.991945
63.645,0.991922
63.646,0.991900
63.647,0.991877
63.648,0.991854
63.649,0.991831
63.650,0.991807
63.651,0.991784
63.652,0.991761
63.653,0.991737
63.654,0.991713
63.655,0.991689
63.656,0.991665
63.657,0.991641
63.658,0.991617
63.659,0.991593
63.660,0.991569
63.661,0.991544
63.662,0.991519
63.663,0.991495
63.664,0.991470
63.665,0.991445
63.666,0.991419
63.667,0.991394
63.668,0.991369
63.669,0.991343
63.670,0.991318
63.671,0.991292
63.672,0.991266
63.673,0.991240
63.674,0.991214
63.675,0.991187
63.676,0.991161
63.677,0.991134
63.678,0.991108
63.679,0.991081
63.680,0.991054
63.681,0.991026
63.682,0.990999
63.683,0.990972
63.684,0.990944
63.685,0.990916
63.686,0.990889
63.687,0.990861
63.688,0.990832
63.689,0.990804
63.690,0.990776
63.691,0.990747
63.692,0.990718
63.693,0.990690
63.694,0.990660
63.695,0.990631
63.696,0.990602
63.697,0.990572
63.698,0.990543
63.699,0.990513
63.700,0.990483
63.701,0.990453
63.702,0.990422
63.703,0.990392
63.704,0.990361
63.705,0.990331
63.706,0.990300
63.707,0.990268
63.708,0.990237
63.709,0.990206
63.710,0.990174
63.711,0.990142
63.712,0.990110
63.713,0.990078
63.714,0.990046
63.715,0.990013
63.716,0.989981
63.717,0.989948
63.718,0.989915
63.719,0.989881
63.720,0.989848
63.721,0.989814
63.722,0.989780
63.723,0.989746
63.724,0.989712
63.725,0.989678
63.726,0.989643
63.727,0.989609
63.728,0.989574
63.729,0.989539
63.730,0.989503
63.731,0.989468
63.732,0.989432
63.733,0.989396
63.734,0.989360
63.735,0.989323
63.736,0.989287
63.737,0.989250
63.738,0.989213
63.739,0.989176
63.740,0.989138
63.741,0.989101
63.742,0.989063
63.743,0.989025
63.744,0.988986
63.745,0.988948
63.746,0.988909
63.747,0.988870
63.748,0.988831
63.749,0.988792
63.750,0.988752
63.751,0.988712
63.752,0.988672
63.753,0.988631
63.754,0.988591
63.755,0.988550
63.756,0.988509
63.757,0.988467
63.758,0.988426
63.759,0.988384
63.760,0.988342
63.761,0.988300
63.762,0.988257
63.763,0.988214
63.764,0.988171
63.765,0.988128
63.766,0.988084
63.767,0.988040
63.768,0.987996
63.769,0.987951
63.770,0.987907
63.771,0.987862
63.772,0.987816
63.773,0.987771
63.774,0.987725
63.775,0.987679
63.776,0.987632
63.777,0.987586
63.778,0.987539
63.779,0.987491
63.780,0.987444
63.781,0.987396
63.782,0.987347
63.783,0.987299
63.784,0.987250
63.785,0.987201
63.786,0.987152
63.787,0.987102
63.788,0.987052
63.789,0.987001
63.790,0.986951
63.791,0.986900
63.792,0.986848
63.793,0.986796
63.794,0.986744
63.795,0.986692
63.796,0.986639
63.797,0.986586
63.798,0.986533
63.799,0.986479
63.800,0.986425
63.801,0.986370
63.802,0.986316
63.803,0.986260
63.804,0.986205
63.805,0.986149
63.806,0.986093
63.807,0.986036
63.808,0.985979
63.809,0.985921
63.810,0.985863
63.811,0.985805
63.812,0.985747
63.813,0.985688
63.814,0.985628
63.815,0.985568
63.816,0.985508
63.817,0.985447
63.818,0.985386
63.819,0.985325
63.820,0.985263
63.821,0.985201
63.822,0.985138
63.823,0.985075
63.824,0.985011
63.825,0.984947
63.826,0.984882
63.827,0.984817
63.828,0.984752
63.829,0.984686
63.830,0.984620
63.831,0.984553
63.832,0.984485
63.833,0.984418
63.834,0.984349
63.835,0.984281
63.836,0.984211
63.837,0.984142
63.838,0.984071
63.839,0.984001
63.840,0.983929
63.841,0.983857
63.842,0.983785
63.843,0.983712
63.844,0.983639
63.845,0.983565
63.846,0.983490
63.847,0.983415
63.848,0.983340
63.849,0.983264
63.850,0.983187
63.851,0.983110
63.852,0.983032
63.853,0.982953
63.854,0.982874
63.855,0.982795
63.856,0.982715
63.857,0.982634
63.858,0.982552
63.859,0.982470
63.860,0.982388
63.861,0.982304
63.862,0.982220
63.863,0.982136
63.864,0.982051
63.865,0.981965
63.866,0.981878
63.867,0.981791
63.868,0.981703
63.869,0.981614
63.870,0.981525
63.871,0.981435
63.872,0.981344
63.873,0.981253
63.874,0.981161
63.875,0.981068
63.876,0.980974
63.877,0.980880
63.878,0.980785
63.879,0.980689
63.880,0.980592
63.881,0.980495
63.882,0.980396
63.883,0.980297
63.884,0.980198
63.885,0.980097
63.886,0.979995
63.887,0.979893
63.888,0.979790
63.889,0.979686
63.890,0.979581
63.891,0.979475
63.892,0.979369
63.893,0.979261
63.894,0.979153
63.895,0.979044
63.896,0.978933
63.897,0.978822
63.898,0.978710
63.899,0.978597
63.900,0.978483
63.901,0.978368
63.902,0.978252
63.903,0.978135
63.904,0.978017
63.905,0.977898
63.906,0.977778
63.907,0.977657
63.908,0.977535
63.909,0.977412
63.910,0.977287
63.911,0.977162
63.912,0.977035
63.913,0.976908
63.914,0.976779
63.915,0.976649
63.916,0.976518
63.917,0.976386
63.918,0.976252
63.919,0.976118
63.920,0.975982
63.921,0.975845
63.922,0.975707
63.923,0.975567
63.924,0.975426
63.925,0.975284
63.926,0.975141
63.927,0.974996
63.928,0.974850
63.929,0.974702
63.930,0.974553
63.931,0.974403
63.932,0.974251
63.933,0.974098
63.934,0.973944
63.935,0.973788
63.936,0.973630
63.937,0.973471
63.938,0.973311
63.939,0.973149
63.940,0.972985
63.941,0.972820
63.942,0.972653
63.943,0.972484
63.944,0.972314
63.945,0.972143
63.946,0.971969
63.947,0.971794
63.948,0.971617
63.949,0.971439
63.950,0.971258
63.951,0.971076
63.952,0.970892
63.953,0.970706
63.954,0.970518
63.955,0.970329
63.956,0.970137
63.957,0.969943
63.958,0.969748
63.959,0.969550
63.960,0.969351
63.961,0.969149
63.962,0.968945
63.963,0.968739
63.964,0.968531
63.965,0.968321
63.966,0.968109
63.967,0.967894
63.968,0.967677
63.969,0.967458
63.970,0.967237
63.971,0.967013
63.972,0.966786
63.973,0.966557
63.974,0.966326
63.975,0.966092
63.976,0.965856
63.977,0.965617
63.978,0.965376
63.979,0.965131
63.980,0.964885
63.981,0.964635
63.982,0.964382
63.983,0.964127
63.984,0.963869
63.985,0.963608
63.986,0.963344
63.987,0.963077
63.988,0.962807
63.989,0.962534
63.990,0.962258
63.991,0.961978
63.992,0.961696
63.993,0.961410
63.994,0.961120
63.995,0.960828
63.996,0.960531
63.997,0.960232
63.998,0.959929
63.999,0.959622
64.000,0.959311
64.001,0.958997
64.002,0.958679
64.003,0.958358
64.004,0.958032
64.005,0.957702
64.006,0.957369
64.007,0.957031
64.008,0.956689
64.009,0.956343
64.010,0.955992
64.011,0.955637
64.012,0.955278
64.013,0.954914
64.014,0.954546
64.015,0.954173
64.016,0.953795
64.017,0.953412
64.018,0.953025
64.019,0.952632
64.020,0.952235
64.021,0.951832
64.022,0.951424
64.023,0.951010
64.024,0.950591
64.025,0.950167
64.026,0.949737
64.027,0.949301
64.028,0.948860
64.029,0.948412
64.030,0.947958
64.031,0.947499
64.032,0.947033
64.033,0.946560
64.034,0.946081
64.035,0.945596
64.036,0.945104
64.037,0.944605
64.038,0.944099
64.039,0.943585
64.040,0.943065
64.041,0.942537
64.042,0.942002
64.043,0.941459
64.044,0.940908
64.045,0.940349
64.046,0.939782
64.047,0.939207
64.048,0.938624
64.049,0.938032
64.050,0.937431
64.051,0.936821
64.052,0.936202
64.053,0.935574
64.054,0.934936
64.055,0.934289
64.056,0.933632
64.057,0.932965
64.058,0.932288
64.059,0.931600
64.060,0.930901
64.061,0.930192
64.062,0.929472
64.063,0.928740
64.064,0.927997
64.065,0.927242
64.066,0.926474
64.067,0.925695
64.068,0.924903
64.069,0.924098
64.070,0.923280
64.071,0.922449
64.072,0.921604
64.073,0.920745
64.074,0.919872
64.075,0.918985
64.076,0.918082
64.077,0.917165
64.078,0.916231
64.079,0.915282
64.080,0.914317
64.081,0.913335
64.082,0.912336
64.083,0.911320
64.084,0.910286
64.085,0.909234
64.086,0.908163
64.087,0.907073
64.088,0.905964
64.089,0.904835
64.090,0.903686
64.091,0.902516
64.092,0.901325
64.093,0.900112
64.094,0.898876
64.095,0.897618
64.096,0.896336
64.097,0.895031
64.098,0.893701
64.099,0.892346
64.100,0.890965
64.101,0.889557
64.102,0.888123
64.103,0.886661
64.104,0.885171
64.105,0.883651
64.106,0.882102
64.107,0.880523
64.108,0.878912
64.109,0.877269
64.110,0.875593
64.111,0.873883
64.112,0.872139
64.113,0.870359
64.114,0.868543
64.115,0.866689
64.116,0.864797
64.117,0.862866
64.118,0.860894
64.119,0.858881
64.120,0.856825
64.121,0.854726
64.122,0.852582
64.123,0.850392
64.124,0.848154
64.125,0.845868
64.126,0.843532
64.127,0.841145
64.128,0.838705
64.129,0.836212
64.130,0.833662
64.131,0.831056
64.132,0.828391
64.133,0.825665
64.134,0.822878
64.135,0.820027
64.136,0.817111
64.137,0.814127
64.138,0.811074
64.139,0.807950
64.140,0.804753
64.141,0.801481
64.142,0.798131
64.143,0.794702
64.144,0.791191
64.145,0.787597
64.146,0.783916
64.147,0.780146
64.148,0.776284
64.149,0.772329
64.150,0.768277
64.151,0.764126
64.152,0.759872
64.153,0.755514
64.154,0.751048
64.155,0.746471
64.156,0.741780
64.157,0.736971
64.158,0.732043
64.159,0.726990
64.160,0.721811
64.161,0.716501
64.162,0.711057
64.163,0.705476
64.164,0.699753
64.165,0.693886
64.166,0.687870
64.167,0.681702
64.168,0.675378
64.169,0.668895
64.170,0.662247
64.171,0.655432
64.172,0.648447
64.173,0.641286
64.174,0.633946
64.175,0.626424
64.176,0.618716
64.177,0.610819
64.178,0.602728
64.179,0.594442
64.180,0.585956
64.181,0.577269
64.182,0.568377
64.183,0.559278
64.184,0.549971
64.185,0.540453
64.186,0.530724
64.187,0.520782
64.188,0.510628
64.189,0.500262
64.190,0.489685
64.191,0.478900
64.192,0.467908
64.193,0.456713
64.194,0.445320
64.195,0.433734
64.196,0.421963
64.197,0.410013
64.198,0.397894
64.199,0.385617
64.200,0.373194
64.201,0.360639
64.202,0.347966
64.203,0.335194
64.204,0.322341
64.205,0.309428
64.206,0.296477
64.207,0.283514
64.208,0.270565
64.209,0.257659
64.210,0.244827
64.211,0.232102
64.212,0.219518
64.213,0.207111
64.214,0.194920
64.215,0.182984
64.216,0.171344
64.217,0.160042
64.218,0.149121
64.219,0.138624
64.220,0.128593
64.221,0.119073
64.222,0.110106
64.223,0.101733
64.224,0.093995
64.225,0.086931
64.226,0.080575
64.227,0.074962
64.228,0.070121
64.229,0.066080
64.230,0.062861
64.231,0.060484
64.232,0.058962
64.233,0.058306
64.234,0.058520
64.235,0.059605
64.236,0.061555
64.237,0.064363
64.238,0.068013
64.239,0.072488
64.240,0.077764
64.241,0.083815
64.242,0.090611
64.243,0.098119
64.244,0.106301
64.245,0.115120
64.246,0.124535
64.247,0.134504
